threshold	A	u(A)
9589	1.506964	0.000368
7397	1.506327	0.000368
5100	1.507601	0.000368
7916	1.507278	0.000368
7752	1.507741	0.000368
6810	1.507000	0.000368
7063	1.507021	0.000368
5893	1.506596	0.000368
7054	1.507209	0.000368
8792	1.507125	0.000368
9122	1.507352	0.000368
7534	1.506810	0.000368
8033	1.507015	0.000368
7553	1.506915	0.000368
9002	1.507004	0.000368
6311	1.507288	0.000368
9610	1.507053	0.000368
8087	1.506794	0.000368
9530	1.506760	0.000368
9143	1.506972	0.000368
7222	1.506694	0.000368
5899	1.507499	0.000368
8791	1.507993	0.000368
7257	1.506986	0.000368
9394	1.507071	0.000368
8446	1.506581	0.000368
7498	1.507260	0.000368
7707	1.507259	0.000368
8238	1.507144	0.000368
8202	1.506841	0.000368
7866	1.506734	0.000368
8525	1.506365	0.000368
9910	1.506695	0.000368
7470	1.506813	0.000368
8465	1.506823	0.000368
8243	1.507427	0.000368
6876	1.506925	0.000368
9915	1.506357	0.000368
6493	1.507047	0.000368
8283	1.507217	0.000368
8127	1.506649	0.000368
9240	1.507554	0.000368
6808	1.507197	0.000368
8861	1.507006	0.000368
6858	1.507326	0.000368
6999	1.507278	0.000368
7605	1.507315	0.000368
6885	1.507495	0.000368
7080	1.507486	0.000368
8806	1.505881	0.000368
7057	1.507155	0.000368
5368	1.507933	0.000368
7571	1.507340	0.000368
5586	1.507659	0.000368
7066	1.507428	0.000368
8025	1.507530	0.000368
7961	1.507304	0.000368
5874	1.507021	0.000368
5240	1.507642	0.000368
8969	1.507056	0.000368
8388	1.507439	0.000368
6695	1.506938	0.000368
9018	1.506840	0.000368
8471	1.507724	0.000368
5980	1.507346	0.000368
7165	1.507015	0.000368
9698	1.506991	0.000368
8726	1.506614	0.000368
5583	1.506853	0.000368
9915	1.507073	0.000368
7776	1.506966	0.000368
7886	1.507082	0.000368
7961	1.506799	0.000368
9263	1.506403	0.000368
8345	1.507340	0.000368
9290	1.506691	0.000368
6263	1.507701	0.000368
8873	1.507022	0.000368
9926	1.506758	0.000368
5622	1.506645	0.000368
8968	1.506754	0.000368
6846	1.506513	0.000368
5747	1.506951	0.000368
9057	1.506988	0.000368
5391	1.506943	0.000368
8219	1.506292	0.000368
5508	1.507789	0.000368
7900	1.506785	0.000368
7678	1.506990	0.000368
6278	1.507263	0.000368
8718	1.506312	0.000368
6397	1.506595	0.000368
5543	1.506773	0.000368
9816	1.506997	0.000368
9088	1.507032	0.000368
7361	1.506506	0.000368
7596	1.507436	0.000368
7136	1.506783	0.000368
9588	1.506922	0.000368
6624	1.507221	0.000368
9433	1.506876	0.000368
9409	1.507038	0.000368
5358	1.507326	0.000368
8706	1.507301	0.000368
8551	1.506813	0.000368
5975	1.506647	0.000368
8403	1.506593	0.000368
9902	1.506833	0.000368
6300	1.507061	0.000368
7400	1.507195	0.000368
6973	1.506933	0.000368
8285	1.507181	0.000368
6480	1.507440	0.000368
8552	1.507143	0.000368
7436	1.507441	0.000368
8078	1.506401	0.000368
6603	1.506848	0.000368
8199	1.507211	0.000368
7982	1.507284	0.000368
8023	1.507177	0.000368
8820	1.506286	0.000368
6257	1.506793	0.000368
5249	1.506817	0.000368
9090	1.506492	0.000368
8834	1.507673	0.000368
9565	1.506854	0.000368
7587	1.507864	0.000368
6442	1.506664	0.000368
8669	1.506728	0.000368
6567	1.507382	0.000368
8290	1.506226	0.000368
6056	1.508141	0.000368
8020	1.506998	0.000368
8854	1.506785	0.000368
7946	1.506891	0.000368
5203	1.507427	0.000368
8381	1.506205	0.000368
9437	1.506567	0.000368
5005	1.507196	0.000368
6280	1.507099	0.000368
5918	1.507659	0.000368
8180	1.507022	0.000368
7071	1.506942	0.000368
8976	1.507116	0.000368
6548	1.506466	0.000368
6976	1.507301	0.000368
9710	1.506647	0.000368
9817	1.507756	0.000368
9699	1.507349	0.000368
7745	1.507090	0.000368
5567	1.506653	0.000368
9984	1.506875	0.000368
7708	1.507087	0.000368
7317	1.507372	0.000368
8744	1.506904	0.000368
7279	1.507151	0.000368
9609	1.507047	0.000368
9700	1.506769	0.000368
6154	1.507458	0.000368
8835	1.506878	0.000368
5774	1.507109	0.000368
9643	1.507035	0.000368
9196	1.507458	0.000368
9963	1.506775	0.000368
8134	1.506956	0.000368
8843	1.506639	0.000368
8607	1.507376	0.000368
8493	1.506211	0.000368
7350	1.506977	0.000368
8488	1.507400	0.000368
8278	1.506584	0.000368
5960	1.507661	0.000368
9911	1.506861	0.000368
6672	1.506912	0.000368
6344	1.506984	0.000368
8310	1.506310	0.000368
5741	1.507039	0.000368
5653	1.506988	0.000368
7148	1.506956	0.000368
5104	1.507602	0.000368
9957	1.507579	0.000368
9819	1.506484	0.000368
6947	1.506782	0.000368
8414	1.506289	0.000368
6644	1.507098	0.000368
7422	1.506884	0.000368
9754	1.507206	0.000368
7145	1.506569	0.000368
7071	1.506955	0.000368
7347	1.507247	0.000368
6974	1.507178	0.000368
5833	1.507100	0.000368
7350	1.506727	0.000368
7144	1.506747	0.000368
7258	1.507233	0.000368
7647	1.507584	0.000368
8757	1.505985	0.000368
5195	1.507635	0.000368
6031	1.506325	0.000368
7649	1.506338	0.000368
6454	1.506461	0.000368
6104	1.506834	0.000368
5007	1.507441	0.000368
8624	1.507051	0.000368
8467	1.506954	0.000368
8117	1.506519	0.000368
8535	1.507442	0.000368
7024	1.506656	0.000368
9375	1.506712	0.000368
7750	1.507268	0.000368
9124	1.507202	0.000368
7905	1.506774	0.000368
8303	1.506979	0.000368
6442	1.507055	0.000368
7767	1.506740	0.000368
7393	1.507295	0.000368
6759	1.506808	0.000368
7347	1.506878	0.000368
5451	1.507389	0.000368
7023	1.507443	0.000368
6050	1.507544	0.000368
8152	1.506701	0.000368
5205	1.507566	0.000368
6868	1.507463	0.000368
5126	1.507487	0.000368
8082	1.507436	0.000368
6171	1.507113	0.000368
8263	1.507462	0.000368
6379	1.506743	0.000368
7746	1.506442	0.000368
5381	1.507094	0.000368
9555	1.507092	0.000368
6034	1.506866	0.000368
8319	1.507023	0.000368
8433	1.507003	0.000368
5590	1.507287	0.000368
7132	1.506970	0.000368
9443	1.506527	0.000368
7363	1.507607	0.000368
7507	1.506998	0.000368
7831	1.507524	0.000368
8667	1.506512	0.000368
6567	1.507845	0.000368
7986	1.507634	0.000368
5970	1.506689	0.000368
5373	1.507649	0.000368
6282	1.506967	0.000368
7910	1.506749	0.000368
6093	1.507331	0.000368
6848	1.506910	0.000368
9944	1.506516	0.000368
7384	1.507705	0.000368
8653	1.506816	0.000368
7858	1.507125	0.000368
6214	1.507247	0.000368
9121	1.507537	0.000368
6416	1.507030	0.000368
7671	1.506900	0.000368
8552	1.506611	0.000368
5034	1.507675	0.000368
6742	1.507248	0.000368
9337	1.506862	0.000368
8122	1.506576	0.000368
7719	1.506305	0.000368
8689	1.507740	0.000368
5889	1.507251	0.000368
5181	1.507936	0.000368
6550	1.507224	0.000368
8860	1.506883	0.000368
9908	1.506780	0.000368
5776	1.507678	0.000368
8439	1.506685	0.000368
7437	1.507760	0.000368
8857	1.506989	0.000368
8374	1.506708	0.000368
5184	1.507543	0.000368
6485	1.506813	0.000368
5893	1.507102	0.000368
9708	1.507102	0.000368
6389	1.506953	0.000368
6226	1.507372	0.000368
7225	1.507129	0.000368
9338	1.507006	0.000368
7266	1.506870	0.000368
9007	1.507227	0.000368
6174	1.507778	0.000368
8196	1.507209	0.000368
8513	1.506992	0.000368
6142	1.507045	0.000368
5647	1.507252	0.000368
6284	1.506585	0.000368
8642	1.506731	0.000368
9290	1.507102	0.000368
5127	1.507312	0.000368
8044	1.506683	0.000368
7049	1.506989	0.000368
7820	1.506699	0.000368
6688	1.506891	0.000368
9183	1.506424	0.000368
6186	1.507845	0.000368
8038	1.506408	0.000368
5519	1.506897	0.000368
8566	1.506894	0.000368
9273	1.507409	0.000368
6383	1.507533	0.000368
9476	1.506535	0.000368
5193	1.507227	0.000368
5797	1.507260	0.000368
6111	1.507338	0.000368
8880	1.507462	0.000368
7320	1.507115	0.000368
5926	1.507201	0.000368
7102	1.507603	0.000368
6903	1.507446	0.000368
7413	1.507205	0.000368
7725	1.507155	0.000368
9463	1.506628	0.000368
8998	1.507146	0.000368
9334	1.507147	0.000368
8957	1.506779	0.000368
7672	1.507196	0.000368
8532	1.507132	0.000368
6907	1.508014	0.000368
7528	1.507666	0.000368
6968	1.506679	0.000368
8800	1.507140	0.000368
9024	1.506885	0.000368
8528	1.506848	0.000368
6996	1.506845	0.000368
8743	1.507001	0.000368
9536	1.507252	0.000368
8259	1.507404	0.000368
7282	1.507459	0.000368
9883	1.507464	0.000368
8807	1.506389	0.000368
8676	1.506831	0.000368
7019	1.506758	0.000368
7412	1.507512	0.000368
6608	1.507610	0.000368
8914	1.507171	0.000368
5579	1.507761	0.000368
5406	1.507766	0.000368
5836	1.506546	0.000368
5883	1.506992	0.000368
9867	1.506671	0.000368
7795	1.506626	0.000368
9509	1.506848	0.000368
9002	1.507202	0.000368
5126	1.507417	0.000368
6271	1.506651	0.000368
9387	1.506628	0.000368
5362	1.507279	0.000368
8884	1.506551	0.000368
5754	1.507264	0.000368
6474	1.505932	0.000368
7017	1.507220	0.000368
6729	1.508125	0.000368
5296	1.507295	0.000368
7002	1.507070	0.000368
7327	1.506856	0.000368
9274	1.507299	0.000368
7203	1.507336	0.000368
7280	1.506714	0.000368
9455	1.507871	0.000368
6985	1.507200	0.000368
5701	1.507021	0.000368
9881	1.507259	0.000368
6296	1.506841	0.000368
7700	1.507265	0.000368
6806	1.507345	0.000368
8342	1.506894	0.000368
7998	1.507805	0.000368
8934	1.507078	0.000368
7101	1.507084	0.000368
7537	1.506834	0.000368
7316	1.506614	0.000368
7718	1.507496	0.000368
6864	1.506801	0.000368
5793	1.507040	0.000368
7766	1.507110	0.000368
7890	1.506605	0.000368
5618	1.506807	0.000368
9097	1.506820	0.000368
8712	1.507304	0.000368
7135	1.507427	0.000368
5476	1.506746	0.000368
5870	1.506245	0.000368
8000	1.506876	0.000368
5097	1.507305	0.000368
9106	1.507009	0.000368
7708	1.507397	0.000368
5667	1.506678	0.000368
8182	1.507560	0.000368
8381	1.507310	0.000368
9724	1.507048	0.000368
6486	1.507098	0.000368
7803	1.507495	0.000368
8188	1.506065	0.000368
6516	1.507296	0.000368
7809	1.506826	0.000368
5478	1.507876	0.000368
5628	1.507787	0.000368
6890	1.507495	0.000368
6330	1.506716	0.000368
5317	1.508191	0.000368
7812	1.506852	0.000368
9325	1.507555	0.000368
5913	1.507115	0.000368
9685	1.506606	0.000368
8649	1.507011	0.000368
5104	1.507064	0.000368
7608	1.507550	0.000368
7812	1.507032	0.000368
7034	1.507212	0.000368
6114	1.507044	0.000368
7983	1.506696	0.000368
7689	1.507633	0.000368
8884	1.506551	0.000368
6493	1.506953	0.000368
6195	1.506664	0.000368
7231	1.507503	0.000368
8372	1.506857	0.000368
7014	1.507275	0.000368
8495	1.506482	0.000368
7091	1.506942	0.000368
9244	1.507237	0.000368
5848	1.507312	0.000368
8407	1.507294	0.000368
7973	1.507041	0.000368
7405	1.507081	0.000368
6685	1.506523	0.000368
8581	1.507093	0.000368
8363	1.506890	0.000368
7408	1.507614	0.000368
7455	1.506820	0.000368
7124	1.506711	0.000368
7401	1.507039	0.000368
6456	1.507003	0.000368
6442	1.506918	0.000368
8666	1.507068	0.000368
9986	1.506663	0.000368
6012	1.507625	0.000368
5071	1.506701	0.000368
9191	1.506897	0.000368
9628	1.506849	0.000368
6548	1.507152	0.000368
8107	1.507641	0.000368
8443	1.507091	0.000368
9654	1.506897	0.000368
8902	1.507327	0.000368
5120	1.507335	0.000368
8102	1.506957	0.000368
5985	1.507422	0.000368
6417	1.506910	0.000368
7638	1.506940	0.000368
8911	1.506919	0.000368
9948	1.507081	0.000368
5885	1.507376	0.000368
9131	1.506931	0.000368
6249	1.507998	0.000368
8522	1.506670	0.000368
8426	1.506760	0.000368
5116	1.507670	0.000368
5796	1.507401	0.000368
6106	1.506652	0.000368
7980	1.506328	0.000368
9315	1.507559	0.000368
6313	1.507529	0.000368
8304	1.507056	0.000368
8411	1.506966	0.000368
6618	1.507098	0.000368
9493	1.507018	0.000368
7600	1.507186	0.000368
7135	1.507278	0.000368
9340	1.506853	0.000368
8047	1.506505	0.000368
9145	1.506512	0.000368
6922	1.506894	0.000368
8624	1.506949	0.000368
6739	1.507713	0.000368
5990	1.507445	0.000368
5628	1.506970	0.000368
6625	1.506814	0.000368
9253	1.506651	0.000368
5606	1.506796	0.000368
7861	1.506687	0.000368
6995	1.507487	0.000368
5042	1.507330	0.000368
8147	1.507411	0.000368
9339	1.507555	0.000368
5609	1.507139	0.000368
5104	1.506717	0.000368
7137	1.506733	0.000368
6659	1.507128	0.000368
5412	1.507501	0.000368
9067	1.506930	0.000368
9244	1.506462	0.000368
7441	1.506929	0.000368
5033	1.506909	0.000368
9896	1.506177	0.000368
5875	1.507775	0.000368
9181	1.506986	0.000368
8113	1.506923	0.000368
7789	1.507518	0.000368
9481	1.507321	0.000368
7083	1.507560	0.000368
8631	1.507408	0.000368
6408	1.508058	0.000368
8234	1.507156	0.000368
6001	1.506626	0.000368
6574	1.507109	0.000368
9912	1.507517	0.000368
9435	1.506835	0.000368
7955	1.507878	0.000368
5302	1.507967	0.000368
5569	1.506992	0.000368
6503	1.507277	0.000368
6947	1.507594	0.000368
6127	1.507431	0.000368
9134	1.506425	0.000368
7153	1.506401	0.000368
6250	1.507873	0.000368
6565	1.506817	0.000368
8220	1.506797	0.000368
9464	1.506842	0.000368
7073	1.507127	0.000368
8127	1.506896	0.000368
5225	1.506884	0.000368
8697	1.507325	0.000368
7491	1.506941	0.000368
6352	1.507791	0.000368
5583	1.507375	0.000368
9901	1.507086	0.000368
8258	1.507116	0.000368
6023	1.507266	0.000368
9319	1.507056	0.000368
7360	1.506852	0.000368
8525	1.506743	0.000368
8633	1.507147	0.000368
9666	1.506939	0.000368
8169	1.506676	0.000368
5809	1.507062	0.000368
6290	1.507819	0.000368
5760	1.506701	0.000368
5299	1.507189	0.000368
9933	1.506495	0.000368
7278	1.507429	0.000368
7157	1.505895	0.000368
8218	1.507235	0.000368
7120	1.507373	0.000368
7632	1.507081	0.000368
9714	1.507030	0.000368
9030	1.506498	0.000368
5813	1.507011	0.000368
9578	1.506378	0.000368
7186	1.507833	0.000368
5804	1.507496	0.000368
9646	1.506654	0.000368
5487	1.507411	0.000368
8335	1.506074	0.000368
8135	1.506846	0.000368
6129	1.507155	0.000368
6517	1.507169	0.000368
7391	1.507050	0.000368
6487	1.506962	0.000368
5265	1.507397	0.000368
7908	1.507398	0.000368
7397	1.506726	0.000368
7986	1.506742	0.000368
9810	1.506868	0.000368
6072	1.506411	0.000368
9572	1.507152	0.000368
5469	1.507390	0.000368
9539	1.507196	0.000368
5045	1.507865	0.000368
6746	1.507180	0.000368
7990	1.507544	0.000368
8725	1.506839	0.000368
6701	1.506966	0.000368
6571	1.507039	0.000368
6803	1.506834	0.000368
8136	1.506708	0.000368
9409	1.507065	0.000368
9913	1.507243	0.000368
9396	1.506872	0.000368
6445	1.506474	0.000368
6890	1.507360	0.000368
6475	1.506663	0.000368
9212	1.506963	0.000368
8945	1.507408	0.000368
5211	1.507635	0.000368
6837	1.507086	0.000368
9908	1.507340	0.000368
5283	1.508044	0.000368
8479	1.506771	0.000368
9466	1.507169	0.000368
8123	1.507334	0.000368
9455	1.506534	0.000368
7125	1.507338	0.000368
8786	1.506878	0.000368
6313	1.506873	0.000368
8082	1.506837	0.000368
9732	1.507314	0.000368
7372	1.506984	0.000368
5494	1.506847	0.000368
7043	1.507556	0.000368
8758	1.507276	0.000368
5889	1.507215	0.000368
7660	1.507272	0.000368
8069	1.507149	0.000368
8253	1.507501	0.000368
7696	1.507002	0.000368
8315	1.506745	0.000368
8595	1.507147	0.000368
6980	1.507335	0.000368
5705	1.507162	0.000368
5128	1.507236	0.000368
5632	1.507287	0.000368
5842	1.507493	0.000368
9656	1.507361	0.000368
7110	1.506825	0.000368
8603	1.506831	0.000368
6578	1.507032	0.000368
9245	1.506861	0.000368
6869	1.506984	0.000368
6276	1.507180	0.000368
7375	1.506578	0.000368
7426	1.507049	0.000368
6818	1.506569	0.000368
6398	1.506691	0.000368
6820	1.506859	0.000368
7847	1.506629	0.000368
5065	1.507910	0.000368
9271	1.506996	0.000368
8375	1.506837	0.000368
8387	1.506956	0.000368
6302	1.506970	0.000368
9062	1.506966	0.000368
6976	1.507169	0.000368
6142	1.507112	0.000368
7404	1.507300	0.000368
6690	1.507282	0.000368
7120	1.506724	0.000368
5730	1.507771	0.000368
7851	1.506709	0.000368
6624	1.507515	0.000368
9115	1.506752	0.000368
9709	1.507702	0.000368
8985	1.507100	0.000368
7577	1.506887	0.000368
7144	1.507184	0.000368
8037	1.506533	0.000368
7666	1.506826	0.000368
6487	1.506571	0.000368
5569	1.507195	0.000368
8561	1.507328	0.000368
8312	1.506502	0.000368
8729	1.507072	0.000368
5358	1.507066	0.000368
8884	1.506525	0.000368
5404	1.506704	0.000368
6404	1.507136	0.000368
9823	1.507140	0.000368
8890	1.506774	0.000368
5888	1.506762	0.000368
7340	1.506418	0.000368
6037	1.506984	0.000368
6526	1.506924	0.000368
6174	1.507466	0.000368
6945	1.507251	0.000368
7894	1.506852	0.000368
6201	1.507441	0.000368
6436	1.507055	0.000368
8097	1.507023	0.000368
6599	1.506775	0.000368
9328	1.507191	0.000368
5041	1.506907	0.000368
7679	1.506855	0.000368
7414	1.507097	0.000368
6181	1.506901	0.000368
7474	1.507124	0.000368
6125	1.507594	0.000368
6046	1.507255	0.000368
9079	1.506411	0.000368
7714	1.507183	0.000368
6387	1.507235	0.000368
6908	1.506996	0.000368
7658	1.507219	0.000368
6946	1.507337	0.000368
5957	1.507740	0.000368
7665	1.506916	0.000368
6904	1.506657	0.000368
8819	1.506755	0.000368
9427	1.507214	0.000368
9670	1.507075	0.000368
6858	1.506103	0.000368
5536	1.506930	0.000368
6785	1.506421	0.000368
6193	1.506349	0.000368
5306	1.507651	0.000368
9489	1.506991	0.000368
8377	1.507029	0.000368
7990	1.506665	0.000368
6805	1.506558	0.000368
7869	1.507731	0.000368
5775	1.507413	0.000368
9866	1.507265	0.000368
8806	1.506801	0.000368
6572	1.507240	0.000368
8615	1.506688	0.000368
6394	1.506791	0.000368
6930	1.507110	0.000368
5621	1.507635	0.000368
8896	1.507163	0.000368
9399	1.506479	0.000368
6095	1.507251	0.000368
9786	1.507564	0.000368
9122	1.506696	0.000368
6924	1.506470	0.000368
9513	1.507124	0.000368
5513	1.507267	0.000368
6588	1.507452	0.000368
6360	1.506914	0.000368
8992	1.507299	0.000368
7983	1.506596	0.000368
7449	1.506578	0.000368
6675	1.507475	0.000368
7990	1.506519	0.000368
6887	1.506782	0.000368
7729	1.506904	0.000368
9654	1.506665	0.000368
5495	1.507350	0.000368
8680	1.506373	0.000368
9951	1.506896	0.000368
6566	1.506430	0.000368
6353	1.507196	0.000368
9689	1.506533	0.000368
9170	1.506830	0.000368
9287	1.506828	0.000368
9373	1.507343	0.000368
9695	1.506884	0.000368
8059	1.507036	0.000368
6732	1.506770	0.000368
8901	1.507500	0.000368
9418	1.506612	0.000368
9474	1.507281	0.000368
5183	1.506512	0.000368
8997	1.506894	0.000368
7006	1.506680	0.000368
7521	1.507038	0.000368
8905	1.507459	0.000368
5721	1.507486	0.000368
6101	1.506673	0.000368
9163	1.507239	0.000368
8362	1.507167	0.000368
8674	1.507205	0.000368
7775	1.506322	0.000368
9537	1.506749	0.000368
7390	1.506496	0.000368
8940	1.506539	0.000368
5227	1.506874	0.000368
5734	1.507311	0.000368
8368	1.506806	0.000368
6050	1.507627	0.000368
5658	1.507191	0.000368
9304	1.506446	0.000368
8702	1.506819	0.000368
7370	1.507559	0.000368
5447	1.506437	0.000368
5864	1.507251	0.000368
9035	1.506335	0.000368
6612	1.506993	0.000368
6504	1.506204	0.000368
8777	1.506671	0.000368
8474	1.507261	0.000368
9250	1.506536	0.000368
9003	1.506560	0.000368
7159	1.507776	0.000368
7860	1.506574	0.000368
9125	1.506117	0.000368
8692	1.507125	0.000368
8697	1.507758	0.000368
8960	1.507111	0.000368
7563	1.508331	0.000368
9180	1.507611	0.000368
6083	1.507504	0.000368
9659	1.506232	0.000368
8471	1.507020	0.000368
8079	1.506920	0.000368
8940	1.506760	0.000368
7052	1.506961	0.000368
8750	1.507002	0.000368
9975	1.507252	0.000368
9791	1.507408	0.000368
8592	1.506895	0.000368
6020	1.507461	0.000368
9047	1.506518	0.000368
9568	1.506990	0.000368
6248	1.507406	0.000368
6649	1.507173	0.000368
5362	1.506889	0.000368
8496	1.507128	0.000368
6072	1.506981	0.000368
6882	1.507591	0.000368
8759	1.507643	0.000368
5153	1.507972	0.000368
5318	1.507226	0.000368
5091	1.507408	0.000368
6600	1.506853	0.000368
6737	1.507470	0.000368
9531	1.506961	0.000368
6093	1.507541	0.000368
9896	1.507353	0.000368
9339	1.506746	0.000368
7775	1.506796	0.000368
9081	1.507473	0.000368
8480	1.506504	0.000368
5657	1.507155	0.000368
8111	1.506944	0.000368
9245	1.507207	0.000368
9803	1.506190	0.000368
6081	1.506687	0.000368
5363	1.507451	0.000368
9270	1.506973	0.000368
7867	1.506744	0.000368
6376	1.506824	0.000368
7882	1.507371	0.000368
7827	1.507413	0.000368
8758	1.507141	0.000368
5271	1.508473	0.000368
6589	1.507021	0.000368
7997	1.506983	0.000368
7611	1.506466	0.000368
6699	1.506997	0.000368
7347	1.507137	0.000368
6728	1.507208	0.000368
9131	1.506948	0.000368
9849	1.507000	0.000368
9682	1.507012	0.000368
6968	1.506919	0.000368
5669	1.507220	0.000368
5376	1.507118	0.000368
8617	1.507204	0.000368
6646	1.506640	0.000368
9920	1.507354	0.000368
6684	1.506741	0.000368
8188	1.507151	0.000368
7097	1.507372	0.000368
8489	1.506906	0.000368
9646	1.507459	0.000368
8176	1.506783	0.000368
5937	1.507513	0.000368
8328	1.507870	0.000368
5381	1.507297	0.000368
6122	1.506730	0.000368
9247	1.507200	0.000368
5655	1.506983	0.000368
5301	1.507038	0.000368
6371	1.506899	0.000368
9486	1.507193	0.000368
5361	1.507028	0.000368
9735	1.507043	0.000368
9544	1.506712	0.000368
9187	1.507125	0.000368
9064	1.507438	0.000368
8536	1.507754	0.000368
8452	1.507276	0.000368
5605	1.507045	0.000368
5095	1.507683	0.000368
8332	1.507104	0.000368
9910	1.507258	0.000368
7305	1.506360	0.000368
5861	1.507323	0.000368
6561	1.507015	0.000368
8139	1.507023	0.000368
6942	1.507318	0.000368
5743	1.506952	0.000368
5933	1.507534	0.000368
9742	1.507402	0.000368
8919	1.507353	0.000368
9019	1.506927	0.000368
8669	1.506833	0.000368
9143	1.506236	0.000368
6741	1.507431	0.000368
8070	1.506766	0.000368
5061	1.507145	0.000368
9080	1.506893	0.000368
5178	1.507678	0.000368
9450	1.506355	0.000368
6868	1.507691	0.000368
5824	1.507433	0.000368
8372	1.506808	0.000368
5050	1.507661	0.000368
7809	1.507129	0.000368
7406	1.507607	0.000368
8003	1.507222	0.000368
9851	1.506642	0.000368
9733	1.507134	0.000368
7116	1.507118	0.000368
9956	1.507183	0.000368
8822	1.507407	0.000368
5775	1.507422	0.000368
5377	1.507862	0.000368
8869	1.507910	0.000368
5136	1.506578	0.000368
6145	1.506956	0.000368
5095	1.507413	0.000368
9235	1.507113	0.000368
6647	1.507200	0.000368
7645	1.506892	0.000368
6718	1.507681	0.000368
5323	1.507251	0.000368
8012	1.507434	0.000368
8128	1.506701	0.000368
6604	1.507324	0.000368
9683	1.507237	0.000368
8685	1.506579	0.000368
5477	1.507347	0.000368
7165	1.507080	0.000368
5889	1.507094	0.000368
7256	1.507744	0.000368
7748	1.506773	0.000368
8348	1.507160	0.000368
9440	1.507176	0.000368
6649	1.506857	0.000368
7222	1.506708	0.000368
6000	1.507581	0.000368
7942	1.508204	0.000368
8255	1.507964	0.000368
7677	1.506267	0.000368
5630	1.507224	0.000368
7105	1.507549	0.000368
9429	1.506952	0.000368
5843	1.507426	0.000368
9364	1.506252	0.000368
6393	1.507473	0.000368
6752	1.507242	0.000368
8196	1.506633	0.000368
9281	1.507111	0.000368
7800	1.506511	0.000368
6621	1.506351	0.000368
6788	1.507980	0.000368
9238	1.507071	0.000368
7390	1.506886	0.000368
9437	1.506496	0.000368
5189	1.507620	0.000368
6695	1.507207	0.000368
8448	1.507155	0.000368
9156	1.506843	0.000368
8297	1.507000	0.000368
6694	1.507141	0.000368
9974	1.506792	0.000368
6027	1.507453	0.000368
8768	1.507759	0.000368
7723	1.507287	0.000368
5575	1.507386	0.000368
6937	1.507058	0.000368
5713	1.507560	0.000368
9854	1.506817	0.000368
6621	1.507431	0.000368
8427	1.507130	0.000368
7920	1.507206	0.000368
5966	1.507281	0.000368
9834	1.507144	0.000368
9948	1.506439	0.000368
8159	1.507356	0.000368
7285	1.507673	0.000368
9472	1.507275	0.000368
7800	1.507031	0.000368
6662	1.506865	0.000368
5008	1.507038	0.000368
8104	1.506981	0.000368
5956	1.507359	0.000368
8194	1.506978	0.000368
8153	1.507373	0.000368
9934	1.506501	0.000368
5054	1.507112	0.000368
6124	1.507303	0.000368
9143	1.506834	0.000368
7822	1.506837	0.000368
8151	1.506630	0.000368
5981	1.506576	0.000368
8309	1.506767	0.000368
7907	1.507073	0.000368
5076	1.506424	0.000368
9019	1.506357	0.000368
5238	1.507494	0.000368
7519	1.507157	0.000368
7813	1.507347	0.000368
8677	1.507648	0.000368
6507	1.506990	0.000368
5851	1.506998	0.000368
5939	1.506864	0.000368
6488	1.507135	0.000368
7602	1.506598	0.000368
6219	1.506711	0.000368
6861	1.507276	0.000368
8265	1.507208	0.000368
8659	1.507075	0.000368
7512	1.506981	0.000368
9101	1.506747	0.000368
6095	1.506649	0.000368
8542	1.506562	0.000368
9134	1.506656	0.000368
8728	1.506805	0.000368
8631	1.506512	0.000368
8663	1.506554	0.000368
6899	1.507322	0.000368
7628	1.507044	0.000368
7949	1.507096	0.000368
9882	1.506910	0.000368
5642	1.506980	0.000368
7722	1.506780	0.000368
9959	1.506856	0.000368
7048	1.506459	0.000368
6027	1.507323	0.000368
5739	1.506895	0.000368
7029	1.506964	0.000368
8867	1.506648	0.000368
7325	1.507292	0.000368
8671	1.507278	0.000368
6442	1.506852	0.000368
5677	1.507256	0.000368
8833	1.507499	0.000368
9726	1.506564	0.000368
9287	1.506361	0.000368
9279	1.507176	0.000368
8004	1.506369	0.000368
5999	1.507251	0.000368
8085	1.507600	0.000368
7495	1.506688	0.000368
9388	1.507123	0.000368
8881	1.506320	0.000368
7230	1.506877	0.000368
8640	1.507046	0.000368
7474	1.507121	0.000368
8323	1.507317	0.000368
7465	1.507272	0.000368
5616	1.506858	0.000368
5927	1.507546	0.000368
5384	1.507440	0.000368
9347	1.506915	0.000368
6906	1.507503	0.000368
6683	1.506599	0.000368
9331	1.506293	0.000368
7174	1.507420	0.000368
8473	1.507002	0.000368
5820	1.506869	0.000368
8178	1.506781	0.000368
6795	1.506625	0.000368
9613	1.507238	0.000368
8689	1.507353	0.000368
8726	1.506668	0.000368
5369	1.507087	0.000368
8601	1.507035	0.000368
8263	1.506703	0.000368
5024	1.506951	0.000368
9263	1.506973	0.000368
7358	1.507470	0.000368
9097	1.507551	0.000368
8242	1.506607	0.000368
8078	1.506392	0.000368
6773	1.506988	0.000368
8390	1.507216	0.000368
9576	1.506602	0.000368
5855	1.507893	0.000368
7810	1.507135	0.000368
5193	1.507282	0.000368
5770	1.507497	0.000368
7554	1.507297	0.000368
6110	1.506756	0.000368
8615	1.507000	0.000368
6229	1.507059	0.000368
6362	1.506737	0.000368
6298	1.506989	0.000368
8264	1.506794	0.000368
5883	1.507360	0.000368
8904	1.507568	0.000368
7822	1.507231	0.000368
5428	1.507308	0.000368
6336	1.507202	0.000368
9561	1.507325	0.000368
7909	1.507338	0.000368
6348	1.508030	0.000368
7103	1.507037	0.000368
9262	1.506630	0.000368
9603	1.506588	0.000368
6143	1.506713	0.000368
6157	1.507207	0.000368
6538	1.506852	0.000368
7361	1.506733	0.000368
6006	1.506857	0.000368
9524	1.506738	0.000368
7035	1.506824	0.000368
5264	1.507046	0.000368
9838	1.507298	0.000368
10000	1.506763	0.000368
6371	1.506228	0.000368
7754	1.507412	0.000368
7519	1.507079	0.000368
8830	1.506939	0.000368
8685	1.507261	0.000368
8949	1.507135	0.000368
7953	1.506721	0.000368
6968	1.506968	0.000368
8824	1.507127	0.000368
7465	1.506732	0.000368
9189	1.507124	0.000368
7189	1.506481	0.000368
8466	1.507026	0.000368
7112	1.507264	0.000368
9924	1.507069	0.000368
6727	1.506506	0.000368
9744	1.507223	0.000368
8015	1.507007	0.000368
6163	1.506599	0.000368
9524	1.507381	0.000368
5226	1.507655	0.000368
6124	1.507727	0.000368
7517	1.507630	0.000368
6060	1.507076	0.000368
6260	1.507864	0.000368
5250	1.507658	0.000368
7355	1.506621	0.000368
8000	1.506814	0.000368
9092	1.507131	0.000368
5371	1.506958	0.000368
8442	1.506952	0.000368
6957	1.506657	0.000368
5974	1.506853	0.000368
7566	1.506786	0.000368
7317	1.507058	0.000368
9618	1.506667	0.000368
7955	1.507077	0.000368
7304	1.506667	0.000368
6460	1.507308	0.000368
7741	1.507009	0.000368
8263	1.506175	0.000368
6741	1.507011	0.000368
9640	1.506729	0.000368
8806	1.507141	0.000368
8427	1.506510	0.000368
5503	1.507512	0.000368
8499	1.506861	0.000368
6473	1.507386	0.000368
7554	1.507431	0.000368
6397	1.507236	0.000368
7784	1.506807	0.000368
7299	1.507983	0.000368
8573	1.506815	0.000368
9867	1.507129	0.000368
8473	1.507395	0.000368
9466	1.506961	0.000368
7913	1.507438	0.000368
8325	1.506822	0.000368
9875	1.507181	0.000368
9670	1.506841	0.000368
6408	1.507392	0.000368
5555	1.507060	0.000368
7783	1.506541	0.000368
8186	1.507122	0.000368
5021	1.507166	0.000368
8564	1.507415	0.000368
8275	1.507216	0.000368
8839	1.507651	0.000368
9152	1.506788	0.000368
5326	1.507672	0.000368
5592	1.507094	0.000368
6617	1.506555	0.000368
8160	1.506632	0.000368
6212	1.507080	0.000368
5824	1.507014	0.000368
5792	1.507305	0.000368
5103	1.507234	0.000368
5478	1.506689	0.000368
5534	1.507206	0.000368
8225	1.507336	0.000368
5952	1.507503	0.000368
5434	1.506797	0.000368
5604	1.507068	0.000368
9108	1.507449	0.000368
5579	1.507361	0.000368
7409	1.507716	0.000368
6048	1.507006	0.000368
5577	1.507700	0.000368
6291	1.506624	0.000368
6060	1.506736	0.000368
5968	1.507091	0.000368
8580	1.507318	0.000368
6484	1.506983	0.000368
6853	1.507593	0.000368
6722	1.507380	0.000368
5443	1.507001	0.000368
9522	1.507342	0.000368
5382	1.507588	0.000368
6753	1.506738	0.000368
9213	1.506934	0.000368
8001	1.507495	0.000368
8681	1.506825	0.000368
7020	1.507200	0.000368
6525	1.506453	0.000368
7990	1.507335	0.000368
9486	1.506654	0.000368
9251	1.506612	0.000368
9887	1.506732	0.000368
8334	1.506238	0.000368
6417	1.506954	0.000368
8839	1.506849	0.000368
7847	1.506554	0.000368
7553	1.506677	0.000368
5147	1.507176	0.000368
9520	1.506418	0.000368
6864	1.506898	0.000368
7304	1.507185	0.000368
7524	1.506648	0.000368
7880	1.507065	0.000368
5705	1.507322	0.000368
8501	1.507211	0.000368
5090	1.508221	0.000368
8307	1.507154	0.000368
8913	1.506608	0.000368
5005	1.507681	0.000368
6050	1.507642	0.000368
5376	1.506721	0.000368
5822	1.507747	0.000368
6217	1.506807	0.000368
7897	1.506432	0.000368
6476	1.507642	0.000368
5636	1.507223	0.000368
6761	1.507253	0.000368
9819	1.506540	0.000368
6823	1.507554	0.000368
5702	1.506655	0.000368
7703	1.507214	0.000368
8797	1.507399	0.000368
5524	1.507073	0.000368
7336	1.507185	0.000368
9015	1.507306	0.000368
8390	1.506682	0.000368
9711	1.506995	0.000368
5951	1.507814	0.000368
8274	1.506453	0.000368
5142	1.507401	0.000368
8506	1.508083	0.000368
7247	1.507240	0.000368
5020	1.507690	0.000368
5917	1.507074	0.000368
8181	1.506701	0.000368
9033	1.507094	0.000368
9630	1.507068	0.000368
9265	1.506884	0.000368
7563	1.507299	0.000368
5393	1.506522	0.000368
8371	1.506763	0.000368
5903	1.507724	0.000368
9198	1.507227	0.000368
5515	1.507458	0.000368
6992	1.507297	0.000368
5227	1.507257	0.000368
8566	1.506615	0.000368
5527	1.507470	0.000368
6866	1.507408	0.000368
7189	1.507298	0.000368
8647	1.506432	0.000368
6186	1.506985	0.000368
5799	1.507164	0.000368
7704	1.507494	0.000368
8823	1.506920	0.000368
8349	1.506983	0.000368
6701	1.507260	0.000368
7550	1.506867	0.000368
9712	1.506670	0.000368
6077	1.506937	0.000368
8670	1.506766	0.000368
9732	1.507412	0.000368
5330	1.507788	0.000368
6025	1.506874	0.000368
9238	1.506925	0.000368
6634	1.508045	0.000368
6310	1.506851	0.000368
8993	1.506673	0.000368
7421	1.506978	0.000368
8683	1.507133	0.000368
6638	1.507671	0.000368
9833	1.507143	0.000368
8452	1.506724	0.000368
7743	1.507164	0.000368
9836	1.506293	0.000368
6535	1.507892	0.000368
9791	1.507539	0.000368
6902	1.507100	0.000368
8424	1.506587	0.000368
8202	1.507069	0.000368
7120	1.507619	0.000368
8736	1.507138	0.000368
5455	1.507812	0.000368
5185	1.507403	0.000368
7901	1.506981	0.000368
8459	1.507098	0.000368
6749	1.507150	0.000368
8448	1.506703	0.000368
7014	1.506400	0.000368
8902	1.507369	0.000368
5690	1.507536	0.000368
7461	1.506793	0.000368
9764	1.506798	0.000368
9080	1.506845	0.000368
9569	1.506792	0.000368
6266	1.507317	0.000368
9547	1.507847	0.000368
7328	1.506747	0.000368
6860	1.507303	0.000368
8393	1.506667	0.000368
8233	1.506724	0.000368
6353	1.507251	0.000368
6761	1.507167	0.000368
6595	1.506675	0.000368
8622	1.507296	0.000368
5732	1.507852	0.000368
9544	1.506801	0.000368
5982	1.507153	0.000368
8425	1.507327	0.000368
6695	1.507014	0.000368
5405	1.507128	0.000368
9346	1.506985	0.000368
8583	1.506297	0.000368
7605	1.506743	0.000368
9689	1.506710	0.000368
5181	1.507342	0.000368
6342	1.507343	0.000368
5672	1.507623	0.000368
7954	1.506625	0.000368
9947	1.506808	0.000368
7768	1.506989	0.000368
7668	1.507033	0.000368
5550	1.506811	0.000368
6536	1.507001	0.000368
8260	1.507072	0.000368
8383	1.506768	0.000368
6869	1.507593	0.000368
6189	1.507330	0.000368
9219	1.506996	0.000368
9410	1.507293	0.000368
9017	1.506265	0.000368
7197	1.506570	0.000368
6673	1.506820	0.000368
7957	1.507834	0.000368
5795	1.507803	0.000368
5467	1.507269	0.000368
7298	1.506444	0.000368
6176	1.507061	0.000368
9839	1.507024	0.000368
6974	1.507728	0.000368
5881	1.507443	0.000368
9273	1.506789	0.000368
5930	1.506997	0.000368
6527	1.506809	0.000368
8069	1.506627	0.000368
5175	1.506846	0.000368
5543	1.506562	0.000368
5267	1.507429	0.000368
5799	1.507390	0.000368
6761	1.506828	0.000368
9130	1.507002	0.000368
9065	1.507494	0.000368
7090	1.506990	0.000368
5745	1.507314	0.000368
6704	1.507752	0.000368
8734	1.507720	0.000368
7735	1.506894	0.000368
5337	1.506925	0.000368
9570	1.506899	0.000368
6569	1.507319	0.000368
5881	1.507308	0.000368
9351	1.507413	0.000368
8078	1.507580	0.000368
6462	1.507053	0.000368
8127	1.507312	0.000368
8945	1.506458	0.000368
9452	1.507278	0.000368
6143	1.506858	0.000368
6939	1.507798	0.000368
5336	1.507594	0.000368
5509	1.507522	0.000368
8788	1.507248	0.000368
5645	1.506839	0.000368
8841	1.507662	0.000368
6499	1.506904	0.000368
8272	1.507231	0.000368
9882	1.506427	0.000368
9588	1.506892	0.000368
6032	1.506913	0.000368
7855	1.507223	0.000368
8722	1.506732	0.000368
9293	1.506584	0.000368
5817	1.507324	0.000368
8918	1.506988	0.000368
7780	1.507271	0.000368
6468	1.507232	0.000368
9894	1.507315	0.000368
8787	1.506969	0.000368
7913	1.506936	0.000368
5849	1.507336	0.000368
8335	1.506967	0.000368
7752	1.506961	0.000368
5337	1.507069	0.000368
8388	1.507385	0.000368
9795	1.507141	0.000368
9109	1.507184	0.000368
6000	1.507095	0.000368
8367	1.506285	0.000368
7012	1.507238	0.000368
9976	1.506941	0.000368
9881	1.506826	0.000368
9960	1.507152	0.000368
8468	1.506832	0.000368
9199	1.507137	0.000368
6579	1.507242	0.000368
6213	1.506603	0.000368
8580	1.506610	0.000368
8794	1.507452	0.000368
8068	1.506809	0.000368
5586	1.507151	0.000368
5889	1.507364	0.000368
6905	1.507761	0.000368
8935	1.506790	0.000368
9920	1.506361	0.000368
5632	1.507322	0.000368
7977	1.507428	0.000368
8957	1.506968	0.000368
7458	1.507052	0.000368
9594	1.506670	0.000368
9386	1.506727	0.000368
5705	1.508038	0.000368
6734	1.507131	0.000368
7752	1.507171	0.000368
9381	1.506042	0.000368
9732	1.506811	0.000368
5950	1.506905	0.000368
6649	1.507288	0.000368
5908	1.507405	0.000368
8891	1.507407	0.000368
7021	1.507683	0.000368
6847	1.507799	0.000368
5965	1.506891	0.000368
6715	1.506709	0.000368
8081	1.506808	0.000368
9737	1.507238	0.000368
6786	1.506800	0.000368
6623	1.507083	0.000368
6034	1.507618	0.000368
9612	1.507193	0.000368
9456	1.507144	0.000368
7965	1.507523	0.000368
8509	1.506887	0.000368
9714	1.507530	0.000368
7122	1.506447	0.000368
8944	1.506602	0.000368
5146	1.506861	0.000368
9512	1.506955	0.000368
8559	1.506361	0.000368
7318	1.506572	0.000368
7197	1.507484	0.000368
6415	1.506473	0.000368
9450	1.506892	0.000368
5119	1.507424	0.000368
5076	1.506902	0.000368
9057	1.507277	0.000368
5133	1.507078	0.000368
6979	1.507623	0.000368
7358	1.507305	0.000368
5206	1.506655	0.000368
8878	1.507643	0.000368
8193	1.506986	0.000368
7812	1.507507	0.000368
6527	1.507658	0.000368
7989	1.506736	0.000368
6002	1.506822	0.000368
9540	1.507421	0.000368
5975	1.507555	0.000368
5713	1.507368	0.000368
5375	1.507627	0.000368
5808	1.506967	0.000368
8018	1.506714	0.000368
5240	1.507399	0.000368
7257	1.506709	0.000368
5103	1.506886	0.000368
8111	1.506976	0.000368
6744	1.507588	0.000368
7320	1.507025	0.000368
9195	1.507600	0.000368
7489	1.506463	0.000368
7319	1.507048	0.000368
8340	1.506762	0.000368
8014	1.506796	0.000368
5793	1.507728	0.000368
6052	1.507364	0.000368
9690	1.506694	0.000368
5634	1.506795	0.000368
5613	1.507032	0.000368
5410	1.507738	0.000368
8828	1.507132	0.000368
5074	1.507557	0.000368
6583	1.505882	0.000368
6154	1.507618	0.000368
7547	1.506904	0.000368
8963	1.507039	0.000368
5039	1.506757	0.000368
9025	1.506245	0.000368
5930	1.507172	0.000368
9871	1.506555	0.000368
8304	1.507298	0.000368
6005	1.507639	0.000368
9202	1.508063	0.000368
7658	1.507513	0.000368
9443	1.506569	0.000368
7211	1.507905	0.000368
5269	1.506894	0.000368
6001	1.506624	0.000368
5109	1.507579	0.000368
5421	1.507113	0.000368
7240	1.506708	0.000368
8651	1.507289	0.000368
5849	1.507718	0.000368
6928	1.506688	0.000368
9473	1.506648	0.000368
6145	1.507666	0.000368
6107	1.507462	0.000368
6538	1.506736	0.000368
8255	1.507615	0.000368
5072	1.507360	0.000368
5179	1.507049	0.000368
9010	1.507260	0.000368
6133	1.507209	0.000368
7253	1.507566	0.000368
6954	1.507537	0.000368
8264	1.507338	0.000368
8112	1.507245	0.000368
7565	1.507127	0.000368
6347	1.507028	0.000368
5011	1.506965	0.000368
9026	1.507090	0.000368
9705	1.506645	0.000368
5628	1.507177	0.000368
8992	1.506459	0.000368
6070	1.507318	0.000368
6614	1.506943	0.000368
7388	1.507101	0.000368
9866	1.506899	0.000368
5638	1.506559	0.000368
9848	1.506952	0.000368
6537	1.506585	0.000368
8435	1.506826	0.000368
6309	1.507338	0.000368
5362	1.507122	0.000368
8002	1.507232	0.000368
8399	1.506794	0.000368
7389	1.506988	0.000368
6197	1.506476	0.000368
5715	1.507126	0.000368
5473	1.506866	0.000368
9644	1.506030	0.000368
9308	1.507063	0.000368
7737	1.507197	0.000368
9686	1.506834	0.000368
5220	1.506861	0.000368
5234	1.506734	0.000368
5306	1.507732	0.000368
5574	1.507365	0.000368
7736	1.506633	0.000368
8246	1.506951	0.000368
8513	1.507547	0.000368
5254	1.506812	0.000368
7752	1.507098	0.000368
7460	1.506520	0.000368
6150	1.507020	0.000368
8975	1.506974	0.000368
9565	1.507420	0.000368
9597	1.507181	0.000368
6661	1.506749	0.000368
5987	1.507282	0.000368
5253	1.507531	0.000368
5053	1.507219	0.000368
7495	1.506803	0.000368
5725	1.507212	0.000368
8996	1.507131	0.000368
9227	1.507075	0.000368
5714	1.506772	0.000368
8292	1.506800	0.000368
8101	1.506867	0.000368
8655	1.507108	0.000368
5039	1.507357	0.000368
9891	1.507164	0.000368
8193	1.507314	0.000368
8239	1.507194	0.000368
9226	1.506692	0.000368
7384	1.506689	0.000368
5136	1.507528	0.000368
6891	1.506776	0.000368
7346	1.506859	0.000368
9917	1.507505	0.000368
9762	1.506931	0.000368
5401	1.506950	0.000368
8989	1.506696	0.000368
9394	1.506878	0.000368
9939	1.506638	0.000368
6081	1.507008	0.000368
6355	1.507763	0.000368
5287	1.507200	0.000368
5586	1.507304	0.000368
7437	1.507664	0.000368
7858	1.506766	0.000368
7118	1.506788	0.000368
7328	1.506551	0.000368
7384	1.507590	0.000368
6316	1.506747	0.000368
8301	1.507153	0.000368
9159	1.507181	0.000368
5502	1.507782	0.000368
6856	1.506761	0.000368
8608	1.507176	0.000368
9870	1.507042	0.000368
8313	1.507280	0.000368
8544	1.507024	0.000368
9865	1.506916	0.000368
9560	1.506417	0.000368
5803	1.507233	0.000368
5873	1.507580	0.000368
8318	1.506691	0.000368
8607	1.506905	0.000368
5047	1.507282	0.000368
5393	1.507130	0.000368
6034	1.507565	0.000368
6881	1.506673	0.000368
6064	1.507351	0.000368
7532	1.507186	0.000368
8036	1.506992	0.000368
7099	1.506696	0.000368
5408	1.507374	0.000368
6168	1.506683	0.000368
8375	1.506479	0.000368
7439	1.507496	0.000368
7198	1.507110	0.000368
8443	1.507161	0.000368
9756	1.506485	0.000368
7868	1.506900	0.000368
9118	1.506817	0.000368
8427	1.507497	0.000368
5123	1.507689	0.000368
7714	1.507088	0.000368
9720	1.507224	0.000368
7236	1.506755	0.000368
5878	1.507329	0.000368
6407	1.506965	0.000368
7813	1.507519	0.000368
8214	1.507071	0.000368
9630	1.507036	0.000368
9656	1.507239	0.000368
6655	1.506935	0.000368
5364	1.507061	0.000368
9366	1.506468	0.000368
6725	1.507206	0.000368
8959	1.506740	0.000368
8958	1.506982	0.000368
6958	1.507081	0.000368
9824	1.506807	0.000368
5586	1.507295	0.000368
8180	1.506419	0.000368
6982	1.507358	0.000368
6559	1.507615	0.000368
9574	1.506640	0.000368
8700	1.506907	0.000368
8639	1.506987	0.000368
5188	1.507702	0.000368
9037	1.506831	0.000368
9547	1.507094	0.000368
6733	1.507027	0.000368
6516	1.507715	0.000368
6701	1.507551	0.000368
9137	1.506268	0.000368
7392	1.506906	0.000368
5490	1.507397	0.000368
6827	1.507393	0.000368
7456	1.506924	0.000368
9278	1.506995	0.000368
5110	1.507799	0.000368
6930	1.507077	0.000368
5894	1.507257	0.000368
5431	1.506931	0.000368
6570	1.506779	0.000368
6167	1.507206	0.000368
7604	1.507639	0.000368
8838	1.507392	0.000368
7584	1.507464	0.000368
8355	1.507141	0.000368
5240	1.507093	0.000368
6155	1.507670	0.000368
8749	1.506593	0.000368
8419	1.507195	0.000368
9725	1.507013	0.000368
8693	1.506950	0.000368
7257	1.507301	0.000368
8404	1.506553	0.000368
6428	1.506974	0.000368
5520	1.507312	0.000368
8038	1.506861	0.000368
8553	1.507177	0.000368
8472	1.507193	0.000368
7146	1.506856	0.000368
8233	1.506428	0.000368
5383	1.507446	0.000368
6713	1.507156	0.000368
8528	1.507218	0.000368
5403	1.507417	0.000368
8345	1.506614	0.000368
7930	1.507381	0.000368
8975	1.506909	0.000368
9465	1.506372	0.000368
9450	1.506731	0.000368
9877	1.507722	0.000368
6416	1.506811	0.000368
7977	1.506813	0.000368
6221	1.506911	0.000368
7947	1.507548	0.000368
7395	1.507391	0.000368
5108	1.507322	0.000368
8189	1.506888	0.000368
9507	1.507063	0.000368
9880	1.507075	0.000368
8026	1.507084	0.000368
9313	1.506686	0.000368
6585	1.507224	0.000368
5550	1.508053	0.000368
5549	1.507230	0.000368
7022	1.507196	0.000368
5603	1.507487	0.000368
8001	1.507387	0.000368
8228	1.506877	0.000368
7532	1.506676	0.000368
9165	1.507056	0.000368
7642	1.506858	0.000368
9214	1.507198	0.000368
6499	1.507500	0.000368
5450	1.507738	0.000368
7073	1.506717	0.000368
9746	1.506829	0.000368
7622	1.507098	0.000368
8248	1.507012	0.000368
8686	1.507022	0.000368
6455	1.507219	0.000368
7441	1.507418	0.000368
9612	1.507098	0.000368
8224	1.506784	0.000368
7245	1.507562	0.000368
7398	1.507022	0.000368
5162	1.507090	0.000368
7058	1.507494	0.000368
8431	1.507241	0.000368
5339	1.506513	0.000368
6963	1.506687	0.000368
9263	1.507213	0.000368
5752	1.507571	0.000368
6004	1.507100	0.000368
7169	1.506801	0.000368
6472	1.506941	0.000368
7473	1.506895	0.000368
5508	1.507299	0.000368
8354	1.506306	0.000368
7037	1.507155	0.000368
5572	1.506456	0.000368
7781	1.506276	0.000368
7480	1.506845	0.000368
5479	1.506420	0.000368
9280	1.507428	0.000368
6042	1.507089	0.000368
9766	1.506563	0.000368
9853	1.506948	0.000368
6266	1.506388	0.000368
5542	1.507834	0.000368
5058	1.507499	0.000368
7499	1.506976	0.000368
6731	1.506900	0.000368
5549	1.507218	0.000368
8429	1.506795	0.000368
5025	1.507274	0.000368
8716	1.506973	0.000368
9511	1.507207	0.000368
5293	1.507575	0.000368
9631	1.507474	0.000368
6193	1.507729	0.000368
9845	1.506592	0.000368
5085	1.507233	0.000368
6152	1.507489	0.000368
7495	1.506805	0.000368
5228	1.506972	0.000368
6690	1.506735	0.000368
9337	1.506434	0.000368
9508	1.507260	0.000368
6083	1.507112	0.000368
5907	1.507386	0.000368
5093	1.507121	0.000368
7614	1.506859	0.000368
7073	1.507209	0.000368
7804	1.506536	0.000368
5153	1.507461	0.000368
5271	1.506669	0.000368
7252	1.506859	0.000368
6361	1.506961	0.000368
7685	1.507146	0.000368
5793	1.507301	0.000368
5587	1.506975	0.000368
8932	1.506821	0.000368
7665	1.506099	0.000368
5899	1.507402	0.000368
5265	1.507042	0.000368
7437	1.506626	0.000368
8518	1.506048	0.000368
7863	1.507292	0.000368
5479	1.507150	0.000368
8541	1.506972	0.000368
7553	1.507460	0.000368
8329	1.507112	0.000368
9226	1.506983	0.000368
5737	1.507052	0.000368
6166	1.507248	0.000368
6322	1.507525	0.000368
5333	1.507820	0.000368
5339	1.507386	0.000368
9579	1.506245	0.000368
8442	1.506882	0.000368
7255	1.506566	0.000368
7259	1.506900	0.000368
9231	1.507190	0.000368
5156	1.506958	0.000368
6802	1.506945	0.000368
6131	1.507663	0.000368
5288	1.506733	0.000368
5921	1.507122	0.000368
9990	1.507055	0.000368
6167	1.507020	0.000368
5608	1.507416	0.000368
5447	1.507170	0.000368
5938	1.507247	0.000368
8002	1.506977	0.000368
9327	1.507168	0.000368
6365	1.507381	0.000368
7262	1.506744	0.000368
5796	1.506931	0.000368
8246	1.507158	0.000368
9565	1.506844	0.000368
7360	1.506715	0.000368
8837	1.507162	0.000368
6158	1.507070	0.000368
5125	1.506887	0.000368
9041	1.506857	0.000368
9581	1.506607	0.000368
7983	1.507225	0.000368
5584	1.506739	0.000368
6563	1.507155	0.000368
7132	1.506624	0.000368
7758	1.507003	0.000368
8172	1.506971	0.000368
8848	1.507469	0.000368
9034	1.507240	0.000368
5598	1.508155	0.000368
8643	1.506539	0.000368
5743	1.507086	0.000368
5947	1.507380	0.000368
9734	1.506792	0.000368
7445	1.506889	0.000368
8581	1.507024	0.000368
5870	1.507674	0.000368
8250	1.507056	0.000368
8798	1.507232	0.000368
8572	1.507449	0.000368
7423	1.506871	0.000368
8224	1.507285	0.000368
9086	1.507203	0.000368
5983	1.507925	0.000368
8620	1.506426	0.000368
7557	1.506337	0.000368
8856	1.507544	0.000368
8341	1.506657	0.000368
5004	1.506853	0.000368
6409	1.507874	0.000368
8685	1.506857	0.000368
9149	1.506728	0.000368
8542	1.506883	0.000368
6387	1.506406	0.000368
9647	1.507842	0.000368
5577	1.506491	0.000368
7463	1.506852	0.000368
6870	1.507452	0.000368
6597	1.506118	0.000368
5401	1.507149	0.000368
8552	1.506984	0.000368
9811	1.506977	0.000368
8079	1.507278	0.000368
7124	1.506586	0.000368
8085	1.506886	0.000368
9739	1.507057	0.000368
9781	1.507198	0.000368
8135	1.507035	0.000368
9260	1.507378	0.000368
9518	1.506922	0.000368
6725	1.507480	0.000368
6458	1.507720	0.000368
7795	1.506887	0.000368
5562	1.506569	0.000368
6778	1.505939	0.000368
7593	1.507001	0.000368
6488	1.507622	0.000368
6809	1.506859	0.000368
8938	1.506971	0.000368
9559	1.507311	0.000368
7054	1.507131	0.000368
8498	1.506675	0.000368
9198	1.506901	0.000368
6230	1.508290	0.000368
6311	1.507313	0.000368
9329	1.506887	0.000368
6200	1.506771	0.000368
6250	1.507743	0.000368
6371	1.507180	0.000368
8071	1.507405	0.000368
5494	1.507562	0.000368
7496	1.507552	0.000368
7905	1.506882	0.000368
6788	1.506562	0.000368
9069	1.507237	0.000368
8973	1.506382	0.000368
5557	1.507764	0.000368
6051	1.506676	0.000368
7110	1.507205	0.000368
8015	1.506884	0.000368
7542	1.507152	0.000368
6244	1.506898	0.000368
9804	1.506796	0.000368
5892	1.507423	0.000368
5198	1.507554	0.000368
9924	1.507694	0.000368
9320	1.507173	0.000368
8153	1.506685	0.000368
7058	1.507158	0.000368
7032	1.506613	0.000368
5751	1.506789	0.000368
7971	1.507122	0.000368
6198	1.507515	0.000368
7585	1.507137	0.000368
8962	1.507275	0.000368
9860	1.507050	0.000368
5245	1.507009	0.000368
6536	1.506854	0.000368
5278	1.507727	0.000368
5586	1.506594	0.000368
7567	1.507065	0.000368
7313	1.507046	0.000368
6243	1.506847	0.000368
9758	1.506829	0.000368
9375	1.507040	0.000368
5594	1.507263	0.000368
6594	1.507046	0.000368
5199	1.507140	0.000368
5968	1.506857	0.000368
6508	1.506180	0.000368
5786	1.507059	0.000368
9696	1.506897	0.000368
8883	1.506849	0.000368
5975	1.507196	0.000368
7614	1.507116	0.000368
8658	1.506494	0.000368
6373	1.506999	0.000368
9378	1.506961	0.000368
9341	1.507123	0.000368
7481	1.507352	0.000368
6122	1.507341	0.000368
7647	1.507126	0.000368
7002	1.507529	0.000368
7831	1.507173	0.000368
6369	1.507349	0.000368
8694	1.507288	0.000368
8261	1.507352	0.000368
6565	1.507584	0.000368
8663	1.507143	0.000368
8110	1.506566	0.000368
6497	1.507438	0.000368
9285	1.506947	0.000368
8679	1.506703	0.000368
6444	1.507230	0.000368
9906	1.506397	0.000368
6853	1.507677	0.000368
5021	1.507829	0.000368
5639	1.507124	0.000368
8482	1.507542	0.000368
5337	1.506981	0.000368
9710	1.506803	0.000368
5481	1.506994	0.000368
9571	1.507402	0.000368
8701	1.506647	0.000368
8825	1.507743	0.000368
8307	1.506938	0.000368
9267	1.507293	0.000368
9527	1.506489	0.000368
7970	1.506754	0.000368
5414	1.507329	0.000368
7883	1.506818	0.000368
9257	1.506881	0.000368
9427	1.506859	0.000368
8626	1.505994	0.000368
7995	1.506921	0.000368
7425	1.507525	0.000368
7240	1.506824	0.000368
7475	1.507188	0.000368
7586	1.507012	0.000368
9366	1.506640	0.000368
8227	1.506422	0.000368
6860	1.506946	0.000368
8689	1.507220	0.000368
7209	1.506671	0.000368
5238	1.507510	0.000368
9047	1.506734	0.000368
6622	1.507295	0.000368
5699	1.507611	0.000368
6002	1.506458	0.000368
5494	1.507139	0.000368
5260	1.507217	0.000368
7033	1.507185	0.000368
5199	1.507029	0.000368
7872	1.507232	0.000368
6201	1.506648	0.000368
8677	1.507603	0.000368
7648	1.507409	0.000368
6927	1.507314	0.000368
5644	1.507562	0.000368
5211	1.506939	0.000368
7822	1.506643	0.000368
8314	1.507128	0.000368
8869	1.506946	0.000368
5420	1.507592	0.000368
9380	1.507036	0.000368
5726	1.507244	0.000368
9151	1.506866	0.000368
9303	1.507020	0.000368
6145	1.507216	0.000368
5506	1.507269	0.000368
5849	1.507201	0.000368
8283	1.507472	0.000368
8371	1.507273	0.000368
7892	1.507706	0.000368
7350	1.507031	0.000368
6383	1.506803	0.000368
6050	1.507018	0.000368
8932	1.506712	0.000368
6020	1.507279	0.000368
7267	1.506632	0.000368
6090	1.507405	0.000368
8385	1.507112	0.000368
6987	1.507042	0.000368
9532	1.506599	0.000368
8847	1.507589	0.000368
7728	1.507048	0.000368
7581	1.506765	0.000368
9188	1.506674	0.000368
5514	1.507225	0.000368
5360	1.507545	0.000368
5365	1.507214	0.000368
8751	1.506693	0.000368
8204	1.507394	0.000368
5078	1.506998	0.000368
8667	1.506794	0.000368
6778	1.507538	0.000368
6600	1.506911	0.000368
6007	1.506849	0.000368
9472	1.506898	0.000368
8817	1.507116	0.000368
7658	1.506518	0.000368
8296	1.506745	0.000368
6946	1.506687	0.000368
7872	1.506391	0.000368
7402	1.506322	0.000368
9306	1.507227	0.000368
9764	1.507174	0.000368
9421	1.507134	0.000368
9260	1.506629	0.000368
9001	1.506534	0.000368
5266	1.507299	0.000368
5469	1.506924	0.000368
5250	1.507486	0.000368
6301	1.507146	0.000368
8489	1.506372	0.000368
8956	1.506431	0.000368
8764	1.506994	0.000368
5937	1.506860	0.000368
9857	1.507360	0.000368
8893	1.507264	0.000368
9085	1.506773	0.000368
5236	1.507194	0.000368
5124	1.507445	0.000368
6432	1.507219	0.000368
8938	1.507374	0.000368
8300	1.506815	0.000368
8650	1.507388	0.000368
6531	1.507106	0.000368
5628	1.507559	0.000368
9138	1.506637	0.000368
7911	1.507146	0.000368
9806	1.507392	0.000368
6831	1.506929	0.000368
6392	1.507383	0.000368
6110	1.506800	0.000368
7007	1.507166	0.000368
7736	1.507231	0.000368
9831	1.507398	0.000368
5014	1.507467	0.000368
9343	1.506954	0.000368
7832	1.506683	0.000368
9434	1.506120	0.000368
8155	1.506224	0.000368
6408	1.506775	0.000368
7761	1.506915	0.000368
9681	1.507287	0.000368
9143	1.506887	0.000368
8341	1.506814	0.000368
7870	1.506507	0.000368
8756	1.506847	0.000368
8371	1.507832	0.000368
8350	1.507377	0.000368
8803	1.506974	0.000368
5440	1.507248	0.000368
5821	1.506974	0.000368
9327	1.506813	0.000368
5508	1.507275	0.000368
8018	1.506744	0.000368
5841	1.506776	0.000368
5081	1.507734	0.000368
5466	1.507052	0.000368
7940	1.506748	0.000368
5647	1.507304	0.000368
6198	1.507229	0.000368
6469	1.507128	0.000368
9963	1.507213	0.000368
5016	1.507453	0.000368
6051	1.507478	0.000368
7483	1.507120	0.000368
8067	1.507205	0.000368
5874	1.506439	0.000368
9869	1.507232	0.000368
8572	1.506347	0.000368
8374	1.506977	0.000368
7661	1.506905	0.000368
7087	1.506497	0.000368
7347	1.507292	0.000368
8487	1.506552	0.000368
9166	1.507058	0.000368
7387	1.506456	0.000368
6136	1.507297	0.000368
7692	1.506968	0.000368
8857	1.506229	0.000368
6286	1.507488	0.000368
9263	1.506689	0.000368
9563	1.506491	0.000368
6713	1.507298	0.000368
7730	1.506700	0.000368
8641	1.506564	0.000368
8048	1.506657	0.000368
6034	1.507631	0.000368
9015	1.506556	0.000368
5004	1.507275	0.000368
6801	1.506835	0.000368
7528	1.507681	0.000368
7097	1.507021	0.000368
7422	1.506966	0.000368
8364	1.506669	0.000368
6772	1.507135	0.000368
5849	1.507491	0.000368
8438	1.507040	0.000368
6987	1.506948	0.000368
6887	1.507061	0.000368
6913	1.507942	0.000368
8375	1.506692	0.000368
9181	1.506589	0.000368
6510	1.506704	0.000368
9677	1.507143	0.000368
9511	1.506717	0.000368
8933	1.507449	0.000368
7387	1.507355	0.000368
6260	1.507027	0.000368
9197	1.506638	0.000368
9225	1.506088	0.000368
6603	1.507509	0.000368
9823	1.506561	0.000368
6257	1.506958	0.000368
6868	1.507181	0.000368
8511	1.507063	0.000368
8815	1.507166	0.000368
9242	1.506276	0.000368
7072	1.506823	0.000368
5483	1.507455	0.000368
6837	1.506623	0.000368
9562	1.506692	0.000368
6239	1.507077	0.000368
9153	1.506398	0.000368
7009	1.506759	0.000368
7372	1.506768	0.000368
8601	1.507366	0.000368
7669	1.506186	0.000368
6637	1.507035	0.000368
6744	1.507765	0.000368
5092	1.506565	0.000368
6116	1.507017	0.000368
5296	1.507328	0.000368
9401	1.507346	0.000368
8751	1.507392	0.000368
6462	1.506986	0.000368
9120	1.507059	0.000368
9095	1.507226	0.000368
8391	1.506535	0.000368
9158	1.506228	0.000368
7268	1.506625	0.000368
5370	1.506928	0.000368
6762	1.507073	0.000368
6998	1.507374	0.000368
7556	1.507406	0.000368
5708	1.506587	0.000368
5937	1.507358	0.000368
6367	1.506852	0.000368
9065	1.507204	0.000368
6414	1.507208	0.000368
6060	1.506857	0.000368
9280	1.507426	0.000368
9555	1.507605	0.000368
5330	1.507317	0.000368
6119	1.507227	0.000368
7708	1.507248	0.000368
9496	1.507191	0.000368
9607	1.506852	0.000368
7547	1.507580	0.000368
9795	1.506741	0.000368
5093	1.507910	0.000368
6051	1.506887	0.000368
8286	1.507083	0.000368
8870	1.507495	0.000368
5248	1.507435	0.000368
8905	1.506681	0.000368
5441	1.507475	0.000368
9675	1.507475	0.000368
7798	1.507435	0.000368
6048	1.506794	0.000368
7657	1.507134	0.000368
7835	1.506319	0.000368
9072	1.506881	0.000368
6280	1.507726	0.000368
5121	1.507509	0.000368
7903	1.506776	0.000368
8770	1.507153	0.000368
5529	1.507268	0.000368
7300	1.507261	0.000368
7141	1.506898	0.000368
7799	1.506633	0.000368
5120	1.506965	0.000368
6803	1.506891	0.000368
9816	1.507180	0.000368
6612	1.506363	0.000368
6991	1.506613	0.000368
9408	1.506337	0.000368
5127	1.507338	0.000368
9169	1.507572	0.000368
5156	1.507154	0.000368
5651	1.507104	0.000368
8412	1.506969	0.000368
8488	1.506824	0.000368
6640	1.507829	0.000368
5223	1.507242	0.000368
7616	1.507203	0.000368
5032	1.507631	0.000368
8344	1.507079	0.000368
7062	1.506360	0.000368
7428	1.507284	0.000368
6606	1.506756	0.000368
9367	1.506363	0.000368
5646	1.507871	0.000368
9767	1.506716	0.000368
9207	1.506147	0.000368
9972	1.506735	0.000368
6766	1.506732	0.000368
7749	1.506910	0.000368
5331	1.506643	0.000368
9549	1.507266	0.000368
9269	1.507210	0.000368
8234	1.506983	0.000368
5741	1.507167	0.000368
9937	1.507476	0.000368
9977	1.506545	0.000368
9887	1.507010	0.000368
8008	1.507112	0.000368
6018	1.507533	0.000368
9958	1.506726	0.000368
5371	1.507083	0.000368
8834	1.506944	0.000368
9282	1.506793	0.000368
8125	1.506851	0.000368
8588	1.506430	0.000368
6753	1.506983	0.000368
7825	1.506445	0.000368
5028	1.507832	0.000368
8584	1.506823	0.000368
5284	1.507478	0.000368
5649	1.507044	0.000368
9544	1.507037	0.000368
8996	1.506708	0.000368
9241	1.506977	0.000368
8724	1.507387	0.000368
7396	1.506480	0.000368
8506	1.507125	0.000368
7417	1.507367	0.000368
8172	1.506182	0.000368
8905	1.506706	0.000368
8522	1.506847	0.000368
8331	1.507580	0.000368
8971	1.507412	0.000368
6995	1.507621	0.000368
5802	1.507010	0.000368
7545	1.507282	0.000368
6379	1.506794	0.000368
9858	1.506957	0.000368
9407	1.506600	0.000368
9504	1.507373	0.000368
7385	1.507247	0.000368
8604	1.507358	0.000368
5996	1.507227	0.000368
6862	1.506759	0.000368
6718	1.507141	0.000368
6752	1.506807	0.000368
8184	1.507132	0.000368
8039	1.506718	0.000368
5406	1.507314	0.000368
7962	1.506748	0.000368
7547	1.507232	0.000368
6160	1.507536	0.000368
5903	1.506421	0.000368
8824	1.507124	0.000368
7707	1.507169	0.000368
8676	1.507242	0.000368
9893	1.506209	0.000368
6686	1.507074	0.000368
9868	1.506914	0.000368
6988	1.506101	0.000368
9543	1.506519	0.000368
9636	1.507398	0.000368
8500	1.507964	0.000368
7297	1.506665	0.000368
6066	1.507443	0.000368
8597	1.506492	0.000368
8895	1.506937	0.000368
9101	1.507338	0.000368
8772	1.507119	0.000368
7470	1.506426	0.000368
9675	1.506927	0.000368
6455	1.507569	0.000368
8692	1.507452	0.000368
6624	1.506947	0.000368
6431	1.507634	0.000368
9787	1.506886	0.000368
7994	1.507382	0.000368
8947	1.506461	0.000368
5484	1.507077	0.000368
5855	1.507559	0.000368
9560	1.506993	0.000368
6423	1.506743	0.000368
9230	1.507435	0.000368
7888	1.507296	0.000368
9502	1.506317	0.000368
8499	1.506710	0.000368
9932	1.507094	0.000368
8961	1.506078	0.000368
6938	1.507041	0.000368
7739	1.507937	0.000368
8943	1.506895	0.000368
9049	1.506894	0.000368
8659	1.506343	0.000368
8628	1.506806	0.000368
7143	1.507254	0.000368
5748	1.507463	0.000368
6236	1.507053	0.000368
7702	1.507322	0.000368
6020	1.507630	0.000368
5172	1.507432	0.000368
5449	1.507370	0.000368
9279	1.507413	0.000368
7914	1.506877	0.000368
7976	1.507818	0.000368
7086	1.506877	0.000368
9613	1.507029	0.000368
5661	1.507365	0.000368
9443	1.506502	0.000368
8412	1.506885	0.000368
5487	1.507943	0.000368
9426	1.507156	0.000368
8664	1.506329	0.000368
6498	1.507453	0.000368
5146	1.507363	0.000368
9982	1.507545	0.000368
8264	1.507029	0.000368
7066	1.506612	0.000368
6075	1.507049	0.000368
9661	1.506694	0.000368
5236	1.507057	0.000368
8478	1.506703	0.000368
6767	1.507072	0.000368
9170	1.506639	0.000368
7310	1.506863	0.000368
9792	1.507271	0.000368
7364	1.507223	0.000368
9865	1.506755	0.000368
6742	1.507479	0.000368
6276	1.506795	0.000368
5896	1.507353	0.000368
5342	1.507663	0.000368
9228	1.506678	0.000368
7692	1.506847	0.000368
6695	1.507369	0.000368
9211	1.507308	0.000368
7314	1.507720	0.000368
8380	1.506978	0.000368
6195	1.506679	0.000368
8448	1.507295	0.000368
7137	1.507080	0.000368
6353	1.506906	0.000368
8412	1.507142	0.000368
6999	1.507399	0.000368
6362	1.507019	0.000368
7117	1.507261	0.000368
6752	1.507029	0.000368
6385	1.507512	0.000368
5958	1.507293	0.000368
7496	1.507152	0.000368
9292	1.506699	0.000368
7952	1.506275	0.000368
8138	1.507272	0.000368
9615	1.506769	0.000368
8976	1.506870	0.000368
5632	1.507104	0.000368
7018	1.508057	0.000368
9040	1.506873	0.000368
6384	1.506818	0.000368
6235	1.507171	0.000368
5765	1.506878	0.000368
6609	1.506947	0.000368
6912	1.507059	0.000368
5639	1.506640	0.000368
8309	1.507198	0.000368
8634	1.507472	0.000368
7482	1.507156	0.000368
8389	1.506908	0.000368
8478	1.506621	0.000368
6574	1.507376	0.000368
6125	1.506355	0.000368
6482	1.506411	0.000368
5650	1.506833	0.000368
7425	1.506871	0.000368
6828	1.506640	0.000368
9041	1.506680	0.000368
9878	1.506976	0.000368
7996	1.506842	0.000368
5733	1.506932	0.000368
9397	1.507495	0.000368
7344	1.507320	0.000368
9660	1.506564	0.000368
5693	1.507058	0.000368
6153	1.507097	0.000368
5357	1.507712	0.000368
5786	1.506757	0.000368
6099	1.507070	0.000368
9121	1.506932	0.000368
8068	1.507017	0.000368
8674	1.507038	0.000368
5328	1.507067	0.000368
6691	1.506936	0.000368
8775	1.506619	0.000368
6433	1.506722	0.000368
8939	1.506446	0.000368
9097	1.507414	0.000368
8278	1.507329	0.000368
7052	1.506849	0.000368
5924	1.507038	0.000368
6482	1.507222	0.000368
7021	1.507414	0.000368
9999	1.506780	0.000368
8204	1.507262	0.000368
8401	1.506893	0.000368
5157	1.507467	0.000368
5801	1.506367	0.000368
6987	1.506835	0.000368
9451	1.506374	0.000368
7738	1.507420	0.000368
6325	1.506887	0.000368
7084	1.506854	0.000368
5523	1.506909	0.000368
8734	1.507066	0.000368
9230	1.506737	0.000368
5109	1.507307	0.000368
7135	1.506277	0.000368
7175	1.507205	0.000368
5306	1.507312	0.000368
9224	1.507416	0.000368
5989	1.506882	0.000368
9519	1.507507	0.000368
7667	1.506509	0.000368
6417	1.506889	0.000368
9421	1.506952	0.000368
7562	1.507439	0.000368
7899	1.506814	0.000368
6417	1.506428	0.000368
5760	1.507087	0.000368
9836	1.507498	0.000368
6387	1.507139	0.000368
5578	1.507154	0.000368
8161	1.506631	0.000368
5089	1.507000	0.000368
7333	1.506381	0.000368
6440	1.507181	0.000368
6922	1.507095	0.000368
6299	1.507624	0.000368
7531	1.507016	0.000368
5072	1.507681	0.000368
7157	1.506620	0.000368
9372	1.507305	0.000368
7128	1.507500	0.000368
9025	1.506448	0.000368
8401	1.507296	0.000368
9679	1.507098	0.000368
6155	1.506995	0.000368
8559	1.507084	0.000368
6082	1.507148	0.000368
7278	1.506841	0.000368
5965	1.507544	0.000368
9800	1.505799	0.000368
8534	1.506718	0.000368
9027	1.506522	0.000368
6806	1.506820	0.000368
6861	1.507105	0.000368
6305	1.506902	0.000368
8753	1.507185	0.000368
8021	1.507289	0.000368
9954	1.506888	0.000368
5411	1.506890	0.000368
5244	1.506903	0.000368
9814	1.507034	0.000368
9010	1.507306	0.000368
7182	1.506468	0.000368
5654	1.507770	0.000368
8281	1.507281	0.000368
5346	1.507103	0.000368
9403	1.505300	0.000368
7868	1.507213	0.000368
6759	1.506673	0.000368
9002	1.506765	0.000368
7450	1.506689	0.000368
9376	1.506787	0.000368
8443	1.507154	0.000368
7149	1.507063	0.000368
7556	1.506980	0.000368
8021	1.506547	0.000368
6926	1.507213	0.000368
6906	1.507295	0.000368
8040	1.506707	0.000368
7251	1.506978	0.000368
6929	1.507295	0.000368
5889	1.506860	0.000368
9370	1.507172	0.000368
5466	1.507350	0.000368
7640	1.506856	0.000368
6608	1.507467	0.000368
8395	1.507125	0.000368
7223	1.507127	0.000368
5946	1.507146	0.000368
7284	1.507416	0.000368
7052	1.507515	0.000368
9159	1.507194	0.000368
6395	1.507651	0.000368
9933	1.506792	0.000368
7420	1.507985	0.000368
8187	1.506709	0.000368
9651	1.506310	0.000368
8464	1.507292	0.000368
8293	1.507250	0.000368
8276	1.506677	0.000368
5878	1.507045	0.000368
5456	1.507515	0.000368
6965	1.506966	0.000368
8181	1.506694	0.000368
7435	1.506249	0.000368
5061	1.506858	0.000368
6235	1.507015	0.000368
7548	1.507149	0.000368
8530	1.507276	0.000368
6476	1.506799	0.000368
7207	1.506886	0.000368
9089	1.507130	0.000368
7987	1.507281	0.000368
9734	1.507425	0.000368
5883	1.507433	0.000368
6829	1.507247	0.000368
5956	1.507229	0.000368
7399	1.507237	0.000368
8231	1.506883	0.000368
9208	1.507785	0.000368
8152	1.506986	0.000368
8087	1.506281	0.000368
9942	1.506383	0.000368
6438	1.506705	0.000368
9500	1.507076	0.000368
8989	1.507122	0.000368
6446	1.507152	0.000368
5602	1.506833	0.000368
7752	1.506865	0.000368
5422	1.506457	0.000368
8831	1.506959	0.000368
9592	1.506691	0.000368
7513	1.506688	0.000368
5619	1.506711	0.000368
8188	1.507282	0.000368
6810	1.507281	0.000368
8153	1.506993	0.000368
9874	1.506779	0.000368
9176	1.507074	0.000368
7612	1.506895	0.000368
9419	1.506722	0.000368
8857	1.506600	0.000368
6304	1.506610	0.000368
